#
# Sample name: Sample title.                                                   
# Sample id:   
# Sample type: 
# User name:   
# Sample description: 
#
# Start time:    2024-05-22, 15:14:19
# Real time (s): 1907.730
# Live time (s): 1800.000
#
# Total counts:  24657198
#
# Left marker:  511 (433.371 keV)
# Right marker: 513 (435.065 keV)
# Counts:  5274
#
# Energy calibration coefficients ( E = sum(Ai * n**i) )
#     A0: 0.669355
#     A1: 0.846774
#     A2: 0.000000
#     A3: 0.000000
# Energy unit: keV
#
# Channel data
# n	energy(keV)	counts	rate(1/s)
#-----------------------------------------------------------------------
1	1.516	0	0
2	2.363	0	0
3	3.210	0	0
4	4.056	0	0
5	4.903	0	0
6	5.750	4	0.00222222
7	6.597	162	0.09
8	7.444	3773	2.09611
9	8.290	25653	14.2517
10	9.137	52981	29.4339
11	9.984	77345	42.9694
12	10.831	100898	56.0544
13	11.677	102711	57.0617
14	12.524	103417	57.4539
15	13.371	103450	57.4722
16	14.218	103648	57.5822
17	15.065	104729	58.1828
18	15.911	105378	58.5433
19	16.758	105206	58.4478
20	17.605	106771	59.3172
21	18.452	107518	59.7322
22	19.298	108663	60.3683
23	20.145	109006	60.5589
24	20.992	111042	61.69
25	21.839	112137	62.2983
26	22.685	113265	62.925
27	23.532	114847	63.8039
28	24.379	116358	64.6433
29	25.226	117343	65.1906
30	26.073	118690	65.9389
31	26.919	120545	66.9694
32	27.766	122800	68.2222
33	28.613	124656	69.2533
34	29.460	126162	70.09
35	30.306	127354	70.7522
36	31.153	130249	72.3606
37	32.000	132401	73.5561
38	32.847	134499	74.7217
39	33.694	136819	76.0106
40	34.540	138700	77.0556
41	35.387	140846	78.2478
42	36.234	143055	79.475
43	37.081	144602	80.3344
44	37.927	146935	81.6306
45	38.774	147948	82.1933
46	39.621	148633	82.5739
47	40.468	150013	83.3406
48	41.315	149932	83.2956
49	42.161	150322	83.5122
50	43.008	149827	83.2372
51	43.855	149199	82.8883
52	44.702	148266	82.37
53	45.548	148145	82.3028
54	46.395	147965	82.2028
55	47.242	145742	80.9678
56	48.089	144415	80.2306
57	48.935	142963	79.4239
58	49.782	141302	78.5011
59	50.629	139818	77.6767
60	51.476	138475	76.9306
61	52.323	136648	75.9156
62	53.169	134136	74.52
63	54.016	132738	73.7433
64	54.863	130211	72.3394
65	55.710	128675	71.4861
66	56.556	127590	70.8833
67	57.403	125998	69.9989
68	58.250	124554	69.1967
69	59.097	122894	68.2744
70	59.944	120801	67.1117
71	60.790	120145	66.7472
72	61.637	118642	65.9122
73	62.484	117301	65.1672
74	63.331	115732	64.2956
75	64.177	114712	63.7289
76	65.024	113406	63.0033
77	65.871	112680	62.6
78	66.718	111093	61.7183
79	67.565	109840	61.0222
80	68.411	108973	60.5406
81	69.258	107457	59.6983
82	70.105	107090	59.4944
83	70.952	106216	59.0089
84	71.798	105554	58.6411
85	72.645	104773	58.2072
86	73.492	102863	57.1461
87	74.339	101993	56.6628
88	75.185	101100	56.1667
89	76.032	99818	55.4544
90	76.879	99124	55.0689
91	77.726	97492	54.1622
92	78.573	96242	53.4678
93	79.419	95399	52.9994
94	80.266	93545	51.9694
95	81.113	91964	51.0911
96	81.960	91238	50.6878
97	82.806	89691	49.8283
98	83.653	87316	48.5089
99	84.500	85659	47.5883
100	85.347	84102	46.7233
101	86.194	82420	45.7889
102	87.040	80465	44.7028
103	87.887	78141	43.4117
104	88.734	76382	42.4344
105	89.581	75302	41.8344
106	90.427	72648	40.36
107	91.274	70984	39.4356
108	92.121	69317	38.5094
109	92.968	67857	37.6983
110	93.815	66333	36.8517
111	94.661	64023	35.5683
112	95.508	63355	35.1972
113	96.355	62130	34.5167
114	97.202	60830	33.7944
115	98.048	60010	33.3389
116	98.895	59568	33.0933
117	99.742	59127	32.8483
118	100.589	57965	32.2028
119	101.435	57945	32.1917
120	102.282	57775	32.0972
121	103.129	57758	32.0878
122	103.976	58405	32.4472
123	104.823	58521	32.5117
124	105.669	59503	33.0572
125	106.516	60330	33.5167
126	107.363	61217	34.0094
127	108.210	62343	34.635
128	109.056	64376	35.7644
129	109.903	66013	36.6739
130	110.750	68299	37.9439
131	111.597	70681	39.2672
132	112.444	73183	40.6572
133	113.290	75991	42.2172
134	114.137	79971	44.4283
135	114.984	83225	46.2361
136	115.831	86908	48.2822
137	116.677	90134	50.0744
138	117.524	94568	52.5378
139	118.371	99053	55.0294
140	119.218	103190	57.3278
141	120.065	107681	59.8228
142	120.911	112648	62.5822
143	121.758	116837	64.9094
144	122.605	120639	67.0217
145	123.452	124902	69.39
146	124.298	128925	71.625
147	125.145	133298	74.0544
148	125.992	136318	75.7322
149	126.839	138779	77.0994
150	127.685	141434	78.5744
151	128.532	143992	79.9956
152	129.379	145689	80.9383
153	130.226	146390	81.3278
154	131.073	146972	81.6511
155	131.919	146942	81.6344
156	132.766	147649	82.0272
157	133.613	146142	81.19
158	134.460	144282	80.1567
159	135.306	142688	79.2711
160	136.153	140647	78.1372
161	137.000	137810	76.5611
162	137.847	134578	74.7656
163	138.694	131235	72.9083
164	139.540	128058	71.1433
165	140.387	124287	69.0483
166	141.234	120309	66.8383
167	142.081	117383	65.2128
168	142.927	112894	62.7189
169	143.774	109228	60.6822
170	144.621	106081	58.9339
171	145.468	101895	56.6083
172	146.315	97428	54.1267
173	147.161	94307	52.3928
174	148.008	90969	50.5383
175	148.855	87243	48.4683
176	149.702	84236	46.7978
177	150.548	81006	45.0033
178	151.395	78314	43.5078
179	152.242	75163	41.7572
180	153.089	72549	40.305
181	153.935	70212	39.0067
182	154.782	67720	37.6222
183	155.629	65356	36.3089
184	156.476	62810	34.8944
185	157.323	61102	33.9456
186	158.169	58877	32.7094
187	159.016	57498	31.9433
188	159.863	55449	30.805
189	160.710	52869	29.3717
190	161.556	51157	28.4206
191	162.403	49218	27.3433
192	163.250	48601	27.0006
193	164.097	46643	25.9128
194	164.944	45160	25.0889
195	165.790	43844	24.3578
196	166.637	42495	23.6083
197	167.484	41365	22.9806
198	168.331	39869	22.1494
199	169.177	38408	21.3378
200	170.024	37720	20.9556
201	170.871	36505	20.2806
202	171.718	35670	19.8167
203	172.565	34708	19.2822
204	173.411	33864	18.8133
205	174.258	32707	18.1706
206	175.105	32065	17.8139
207	175.952	31409	17.4494
208	176.798	30745	17.0806
209	177.645	29991	16.6617
210	178.492	29712	16.5067
211	179.339	29066	16.1478
212	180.185	28750	15.9722
213	181.032	28059	15.5883
214	181.879	27922	15.5122
215	182.726	27552	15.3067
216	183.573	26968	14.9822
217	184.419	26739	14.855
218	185.266	26524	14.7356
219	186.113	26273	14.5961
220	186.960	26001	14.445
221	187.806	25540	14.1889
222	188.653	25704	14.28
223	189.500	25394	14.1078
224	190.347	24959	13.8661
225	191.194	25140	13.9667
226	192.040	25147	13.9706
227	192.887	24618	13.6767
228	193.734	24218	13.4544
229	194.581	24526	13.6256
230	195.427	24202	13.4456
231	196.274	23965	13.3139
232	197.121	23859	13.255
233	197.968	23836	13.2422
234	198.815	23846	13.2478
235	199.661	23753	13.1961
236	200.508	23302	12.9456
237	201.355	23379	12.9883
238	202.202	23439	13.0217
239	203.048	23231	12.9061
240	203.895	23246	12.9144
241	204.742	23353	12.9739
242	205.589	23037	12.7983
243	206.435	23250	12.9167
244	207.282	22918	12.7322
245	208.129	22899	12.7217
246	208.976	22849	12.6939
247	209.823	22566	12.5367
248	210.669	22410	12.45
249	211.516	22265	12.3694
250	212.363	22405	12.4472
251	213.210	22447	12.4706
252	214.056	22265	12.3694
253	214.903	22247	12.3594
254	215.750	21974	12.2078
255	216.597	21888	12.16
256	217.444	22095	12.275
257	218.290	22146	12.3033
258	219.137	21910	12.1722
259	219.984	21937	12.1872
260	220.831	21843	12.135
261	221.677	21963	12.2017
262	222.524	22352	12.4178
263	223.371	21558	11.9767
264	224.218	21697	12.0539
265	225.065	21775	12.0972
266	225.911	21575	11.9861
267	226.758	21491	11.9394
268	227.605	21493	11.9406
269	228.452	21685	12.0472
270	229.298	21246	11.8033
271	230.145	21556	11.9756
272	230.992	21132	11.74
273	231.839	21558	11.9767
274	232.685	21545	11.9694
275	233.532	21029	11.6828
276	234.379	21292	11.8289
277	235.226	21488	11.9378
278	236.073	21032	11.6844
279	236.919	20878	11.5989
280	237.766	20857	11.5872
281	238.613	20813	11.5628
282	239.460	21015	11.675
283	240.306	21185	11.7694
284	241.153	20889	11.605
285	242.000	21253	11.8072
286	242.847	21107	11.7261
287	243.694	20935	11.6306
288	244.540	20923	11.6239
289	245.387	20680	11.4889
290	246.234	20891	11.6061
291	247.081	20594	11.4411
292	247.927	20981	11.6561
293	248.774	20848	11.5822
294	249.621	20806	11.5589
295	250.468	20606	11.4478
296	251.315	20565	11.425
297	252.161	20615	11.4528
298	253.008	20815	11.5639
299	253.855	20493	11.385
300	254.702	20652	11.4733
301	255.548	20461	11.3672
302	256.395	20186	11.2144
303	257.242	20204	11.2244
304	258.089	20464	11.3689
305	258.935	20232	11.24
306	259.782	20212	11.2289
307	260.629	20232	11.24
308	261.476	20112	11.1733
309	262.323	19986	11.1033
310	263.169	20070	11.15
311	264.016	19531	10.8506
312	264.863	19729	10.9606
313	265.710	19601	10.8894
314	266.556	19401	10.7783
315	267.403	19662	10.9233
316	268.250	19209	10.6717
317	269.097	19140	10.6333
318	269.944	18971	10.5394
319	270.790	19169	10.6494
320	271.637	18640	10.3556
321	272.484	18840	10.4667
322	273.331	18732	10.4067
323	274.177	18497	10.2761
324	275.024	18291	10.1617
325	275.871	17919	9.955
326	276.718	18062	10.0344
327	277.565	17915	9.95278
328	278.411	17882	9.93444
329	279.258	17494	9.71889
330	280.105	17562	9.75667
331	280.952	17327	9.62611
332	281.798	17560	9.75556
333	282.645	17203	9.55722
334	283.492	17041	9.46722
335	284.339	17187	9.54833
336	285.185	16504	9.16889
337	286.032	16624	9.23556
338	286.879	16491	9.16167
339	287.726	16080	8.93333
340	288.573	16483	9.15722
341	289.419	16194	8.99667
342	290.266	16245	9.025
343	291.113	16059	8.92167
344	291.960	16119	8.955
345	292.806	16013	8.89611
346	293.653	15755	8.75278
347	294.500	15624	8.68
348	295.347	15707	8.72611
349	296.194	15679	8.71056
350	297.040	15574	8.65222
351	297.887	15537	8.63167
352	298.734	15603	8.66833
353	299.581	15728	8.73778
354	300.427	15756	8.75333
355	301.274	15745	8.74722
356	302.121	15798	8.77667
357	302.968	15652	8.69556
358	303.815	15563	8.64611
359	304.661	15954	8.86333
360	305.508	15669	8.705
361	306.355	16097	8.94278
362	307.202	15661	8.70056
363	308.048	15829	8.79389
364	308.895	15931	8.85056
365	309.742	15674	8.70778
366	310.589	16187	8.99278
367	311.435	16413	9.11833
368	312.282	16185	8.99167
369	313.129	16037	8.90944
370	313.976	16207	9.00389
371	314.823	16164	8.98
372	315.669	16186	8.99222
373	316.516	16410	9.11667
374	317.363	16215	9.00833
375	318.210	16090	8.93889
376	319.056	16142	8.96778
377	319.903	16166	8.98111
378	320.750	16011	8.895
379	321.597	16260	9.03333
380	322.444	15939	8.855
381	323.290	15752	8.75111
382	324.137	15872	8.81778
383	324.984	15810	8.78333
384	325.831	15586	8.65889
385	326.677	15775	8.76389
386	327.524	15382	8.54556
387	328.371	15298	8.49889
388	329.218	15173	8.42944
389	330.065	15155	8.41944
390	330.911	14738	8.18778
391	331.758	14691	8.16167
392	332.605	14470	8.03889
393	333.452	14035	7.79722
394	334.298	13900	7.72222
395	335.145	13952	7.75111
396	335.992	13904	7.72444
397	336.839	13376	7.43111
398	337.685	13388	7.43778
399	338.532	13210	7.33889
400	339.379	12980	7.21111
401	340.226	12534	6.96333
402	341.073	12537	6.965
403	341.919	12392	6.88444
404	342.766	12309	6.83833
405	343.613	11856	6.58667
406	344.460	11628	6.46
407	345.306	11375	6.31944
408	346.153	11265	6.25833
409	347.000	11149	6.19389
410	347.847	10688	5.93778
411	348.694	10424	5.79111
412	349.540	10342	5.74556
413	350.387	10342	5.74556
414	351.234	10127	5.62611
415	352.081	9830	5.46111
416	352.927	9465	5.25833
417	353.774	9334	5.18556
418	354.621	9323	5.17944
419	355.468	9202	5.11222
420	356.315	9086	5.04778
421	357.161	8874	4.93
422	358.008	8787	4.88167
423	358.855	8535	4.74167
424	359.702	8559	4.755
425	360.548	8292	4.60667
426	361.395	8237	4.57611
427	362.242	8253	4.585
428	363.089	7963	4.42389
429	363.935	7772	4.31778
430	364.782	7840	4.35556
431	365.629	7804	4.33556
432	366.476	7581	4.21167
433	367.323	7426	4.12556
434	368.169	7385	4.10278
435	369.016	7262	4.03444
436	369.863	7052	3.91778
437	370.710	7046	3.91444
438	371.556	6910	3.83889
439	372.403	6678	3.71
440	373.250	6632	3.68444
441	374.097	6603	3.66833
442	374.944	6594	3.66333
443	375.790	6338	3.52111
444	376.637	6356	3.53111
445	377.484	6371	3.53944
446	378.331	6296	3.49778
447	379.177	6097	3.38722
448	380.024	6015	3.34167
449	380.871	5935	3.29722
450	381.718	5870	3.26111
451	382.565	5757	3.19833
452	383.411	5749	3.19389
453	384.258	5425	3.01389
454	385.105	5518	3.06556
455	385.952	5474	3.04111
456	386.798	5519	3.06611
457	387.645	5377	2.98722
458	388.492	5426	3.01444
459	389.339	5142	2.85667
460	390.185	5159	2.86611
461	391.032	5050	2.80556
462	391.879	5099	2.83278
463	392.726	4860	2.7
464	393.573	4807	2.67056
465	394.419	4829	2.68278
466	395.266	4684	2.60222
467	396.113	4605	2.55833
468	396.960	4552	2.52889
469	397.806	4440	2.46667
470	398.653	4361	2.42278
471	399.500	4449	2.47167
472	400.347	4314	2.39667
473	401.194	4249	2.36056
474	402.040	4178	2.32111
475	402.887	4049	2.24944
476	403.734	4017	2.23167
477	404.581	3993	2.21833
478	405.427	3956	2.19778
479	406.274	3803	2.11278
480	407.121	3727	2.07056
481	407.968	3773	2.09611
482	408.815	3638	2.02111
483	409.661	3653	2.02944
484	410.508	3608	2.00444
485	411.355	3599	1.99944
486	412.202	3505	1.94722
487	413.048	3400	1.88889
488	413.895	3313	1.84056
489	414.742	3367	1.87056
490	415.589	3412	1.89556
491	416.435	3276	1.82
492	417.282	3229	1.79389
493	418.129	3160	1.75556
494	418.976	3212	1.78444
495	419.823	3097	1.72056
496	420.669	3153	1.75167
497	421.516	2992	1.66222
498	422.363	3042	1.69
499	423.210	3010	1.67222
500	424.056	2922	1.62333
501	424.903	2964	1.64667
502	425.750	2932	1.62889
503	426.597	2854	1.58556
504	427.444	2896	1.60889
505	428.290	2831	1.57278
506	429.137	2815	1.56389
507	429.984	2804	1.55778
508	430.831	2811	1.56167
509	431.677	2682	1.49
510	432.524	2627	1.45944
511	433.371	2654	1.47444
512	434.218	2632	1.46222
513	435.065	2642	1.46778
514	435.911	2655	1.475
515	436.758	2643	1.46833
516	437.605	2608	1.44889
517	438.452	2494	1.38556
518	439.298	2500	1.38889
519	440.145	2571	1.42833
520	440.992	2432	1.35111
521	441.839	2438	1.35444
522	442.685	2549	1.41611
523	443.532	2432	1.35111
524	444.379	2374	1.31889
525	445.226	2355	1.30833
526	446.073	2409	1.33833
527	446.919	2231	1.23944
528	447.766	2315	1.28611
529	448.613	2396	1.33111
530	449.460	2147	1.19278
531	450.306	2313	1.285
532	451.153	2234	1.24111
533	452.000	2239	1.24389
534	452.847	2203	1.22389
535	453.694	2169	1.205
536	454.540	2175	1.20833
537	455.387	2152	1.19556
538	456.234	2184	1.21333
539	457.081	2106	1.17
540	457.927	2184	1.21333
541	458.774	2115	1.175
542	459.621	2180	1.21111
543	460.468	2046	1.13667
544	461.315	2114	1.17444
545	462.161	2077	1.15389
546	463.008	1967	1.09278
547	463.855	1912	1.06222
548	464.702	2061	1.145
549	465.548	1943	1.07944
550	466.395	2001	1.11167
551	467.242	1904	1.05778
552	468.089	1959	1.08833
553	468.935	1927	1.07056
554	469.782	1974	1.09667
555	470.629	1865	1.03611
556	471.476	1877	1.04278
557	472.323	1835	1.01944
558	473.169	1871	1.03944
559	474.016	1788	0.993333
560	474.863	1865	1.03611
561	475.710	1860	1.03333
562	476.556	1840	1.02222
563	477.403	1786	0.992222
564	478.250	1740	0.966667
565	479.097	1909	1.06056
566	479.944	1687	0.937222
567	480.790	1700	0.944444
568	481.637	1794	0.996667
569	482.484	1788	0.993333
570	483.331	1717	0.953889
571	484.177	1746	0.97
572	485.024	1699	0.943889
573	485.871	1719	0.955
574	486.718	1642	0.912222
575	487.565	1610	0.894444
576	488.411	1724	0.957778
577	489.258	1684	0.935556
578	490.105	1734	0.963333
579	490.952	1631	0.906111
580	491.798	1669	0.927222
581	492.645	1638	0.91
582	493.492	1741	0.967222
583	494.339	1666	0.925556
584	495.185	1598	0.887778
585	496.032	1616	0.897778
586	496.879	1634	0.907778
587	497.726	1648	0.915556
588	498.573	1619	0.899444
589	499.419	1587	0.881667
590	500.266	1684	0.935556
591	501.113	1589	0.882778
592	501.960	1604	0.891111
593	502.806	1592	0.884444
594	503.653	1571	0.872778
595	504.500	1558	0.865556
596	505.347	1510	0.838889
597	506.194	1569	0.871667
598	507.040	1557	0.865
599	507.887	1572	0.873333
600	508.734	1446	0.803333
601	509.581	1573	0.873889
602	510.427	1531	0.850556
603	511.274	1607	0.892778
604	512.121	1605	0.891667
605	512.968	1547	0.859444
606	513.815	1494	0.83
607	514.661	1522	0.845556
608	515.508	1550	0.861111
609	516.355	1586	0.881111
610	517.202	1545	0.858333
611	518.048	1531	0.850556
612	518.895	1552	0.862222
613	519.742	1523	0.846111
614	520.589	1480	0.822222
615	521.436	1496	0.831111
616	522.282	1521	0.845
617	523.129	1498	0.832222
618	523.976	1489	0.827222
619	524.823	1475	0.819444
620	525.669	1519	0.843889
621	526.516	1553	0.862778
622	527.363	1443	0.801667
623	528.210	1480	0.822222
624	529.056	1467	0.815
625	529.903	1466	0.814444
626	530.750	1456	0.808889
627	531.597	1468	0.815556
628	532.444	1447	0.803889
629	533.290	1451	0.806111
630	534.137	1452	0.806667
631	534.984	1460	0.811111
632	535.831	1385	0.769444
633	536.677	1355	0.752778
634	537.524	1395	0.775
635	538.371	1372	0.762222
636	539.218	1353	0.751667
637	540.065	1441	0.800556
638	540.911	1406	0.781111
639	541.758	1394	0.774444
640	542.605	1383	0.768333
641	543.452	1342	0.745556
642	544.298	1377	0.765
643	545.145	1437	0.798333
644	545.992	1365	0.758333
645	546.839	1351	0.750556
646	547.686	1325	0.736111
647	548.532	1341	0.745
648	549.379	1374	0.763333
649	550.226	1308	0.726667
650	551.073	1348	0.748889
651	551.919	1375	0.763889
652	552.766	1253	0.696111
653	553.613	1327	0.737222
654	554.460	1303	0.723889
655	555.306	1219	0.677222
656	556.153	1329	0.738333
657	557.000	1314	0.73
658	557.847	1282	0.712222
659	558.694	1310	0.727778
660	559.540	1338	0.743333
661	560.387	1250	0.694444
662	561.234	1229	0.682778
663	562.081	1229	0.682778
664	562.927	1252	0.695556
665	563.774	1249	0.693889
666	564.621	1248	0.693333
667	565.468	1254	0.696667
668	566.315	1193	0.662778
669	567.161	1259	0.699444
670	568.008	1232	0.684444
671	568.855	1205	0.669444
672	569.702	1235	0.686111
673	570.548	1175	0.652778
674	571.395	1191	0.661667
675	572.242	1157	0.642778
676	573.089	1133	0.629444
677	573.936	1180	0.655556
678	574.782	1213	0.673889
679	575.629	1174	0.652222
680	576.476	1146	0.636667
681	577.323	1123	0.623889
682	578.169	1176	0.653333
683	579.016	1140	0.633333
684	579.863	1153	0.640556
685	580.710	1191	0.661667
686	581.556	1132	0.628889
687	582.403	1097	0.609444
688	583.250	1106	0.614444
689	584.097	1096	0.608889
690	584.944	1123	0.623889
691	585.790	1108	0.615556
692	586.637	1079	0.599444
693	587.484	1080	0.6
694	588.331	1071	0.595
695	589.177	1066	0.592222
696	590.024	1093	0.607222
697	590.871	1068	0.593333
698	591.718	1049	0.582778
699	592.565	1014	0.563333
700	593.411	1035	0.575
701	594.258	1074	0.596667
702	595.105	1078	0.598889
703	595.952	1051	0.583889
704	596.798	987	0.548333
705	597.645	1059	0.588333
706	598.492	989	0.549444
707	599.339	1023	0.568333
708	600.186	971	0.539444
709	601.032	1034	0.574444
710	601.879	1009	0.560556
711	602.726	976	0.542222
712	603.573	1022	0.567778
713	604.419	984	0.546667
714	605.266	981	0.545
715	606.113	960	0.533333
716	606.960	944	0.524444
717	607.806	944	0.524444
718	608.653	981	0.545
719	609.500	972	0.54
720	610.347	939	0.521667
721	611.194	909	0.505
722	612.040	943	0.523889
723	612.887	975	0.541667
724	613.734	944	0.524444
725	614.581	950	0.527778
726	615.427	911	0.506111
727	616.274	955	0.530556
728	617.121	924	0.513333
729	617.968	946	0.525556
730	618.815	919	0.510556
731	619.661	905	0.502778
732	620.508	932	0.517778
733	621.355	954	0.53
734	622.202	869	0.482778
735	623.048	859	0.477222
736	623.895	899	0.499444
737	624.742	813	0.451667
738	625.589	886	0.492222
739	626.436	879	0.488333
740	627.282	818	0.454444
741	628.129	824	0.457778
742	628.976	758	0.421111
743	629.823	834	0.463333
744	630.669	874	0.485556
745	631.516	864	0.48
746	632.363	815	0.452778
747	633.210	828	0.46
748	634.056	861	0.478333
749	634.903	811	0.450556
750	635.750	788	0.437778
751	636.597	810	0.45
752	637.444	819	0.455
753	638.290	792	0.44
754	639.137	769	0.427222
755	639.984	821	0.456111
756	640.831	783	0.435
757	641.677	755	0.419444
758	642.524	828	0.46
759	643.371	795	0.441667
760	644.218	799	0.443889
761	645.065	774	0.43
762	645.911	786	0.436667
763	646.758	736	0.408889
764	647.605	751	0.417222
765	648.452	766	0.425556
766	649.298	798	0.443333
767	650.145	793	0.440556
768	650.992	755	0.419444
769	651.839	754	0.418889
770	652.686	777	0.431667
771	653.532	723	0.401667
772	654.379	783	0.435
773	655.226	749	0.416111
774	656.073	768	0.426667
775	656.919	754	0.418889
776	657.766	750	0.416667
777	658.613	816	0.453333
778	659.460	710	0.394444
779	660.306	743	0.412778
780	661.153	728	0.404444
781	662.000	703	0.390556
782	662.847	772	0.428889
783	663.694	753	0.418333
784	664.540	718	0.398889
785	665.387	725	0.402778
786	666.234	728	0.404444
787	667.081	726	0.403333
788	667.927	688	0.382222
789	668.774	688	0.382222
790	669.621	716	0.397778
791	670.468	733	0.407222
792	671.315	699	0.388333
793	672.161	681	0.378333
794	673.008	721	0.400556
795	673.855	744	0.413333
796	674.702	675	0.375
797	675.548	636	0.353333
798	676.395	720	0.4
799	677.242	706	0.392222
800	678.089	729	0.405
801	678.936	725	0.402778
802	679.782	722	0.401111
803	680.629	673	0.373889
804	681.476	652	0.362222
805	682.323	729	0.405
806	683.169	681	0.378333
807	684.016	712	0.395556
808	684.863	671	0.372778
809	685.710	669	0.371667
810	686.556	719	0.399444
811	687.403	679	0.377222
812	688.250	648	0.36
813	689.097	655	0.363889
814	689.944	717	0.398333
815	690.790	711	0.395
816	691.637	690	0.383333
817	692.484	708	0.393333
818	693.331	650	0.361111
819	694.177	657	0.365
820	695.024	682	0.378889
821	695.871	682	0.378889
822	696.718	648	0.36
823	697.565	670	0.372222
824	698.411	687	0.381667
825	699.258	626	0.347778
826	700.105	644	0.357778
827	700.952	695	0.386111
828	701.798	627	0.348333
829	702.645	693	0.385
830	703.492	657	0.365
831	704.339	664	0.368889
832	705.186	659	0.366111
833	706.032	634	0.352222
834	706.879	672	0.373333
835	707.726	649	0.360556
836	708.573	695	0.386111
837	709.419	649	0.360556
838	710.266	600	0.333333
839	711.113	609	0.338333
840	711.960	570	0.316667
841	712.806	642	0.356667
842	713.653	582	0.323333
843	714.500	624	0.346667
844	715.347	617	0.342778
845	716.194	612	0.34
846	717.040	571	0.317222
847	717.887	598	0.332222
848	718.734	560	0.311111
849	719.581	594	0.33
850	720.427	565	0.313889
851	721.274	570	0.316667
852	722.121	575	0.319444
853	722.968	558	0.31
854	723.815	517	0.287222
855	724.661	552	0.306667
856	725.508	517	0.287222
857	726.355	540	0.3
858	727.202	546	0.303333
859	728.048	531	0.295
860	728.895	515	0.286111
861	729.742	494	0.274444
862	730.589	519	0.288333
863	731.436	498	0.276667
864	732.282	510	0.283333
865	733.129	525	0.291667
866	733.976	499	0.277222
867	734.823	498	0.276667
868	735.669	508	0.282222
869	736.516	443	0.246111
870	737.363	474	0.263333
871	738.210	440	0.244444
872	739.056	464	0.257778
873	739.903	430	0.238889
874	740.750	455	0.252778
875	741.597	438	0.243333
876	742.444	420	0.233333
877	743.290	450	0.25
878	744.137	394	0.218889
879	744.984	425	0.236111
880	745.831	426	0.236667
881	746.677	413	0.229444
882	747.524	400	0.222222
883	748.371	406	0.225556
884	749.218	356	0.197778
885	750.065	416	0.231111
886	750.911	385	0.213889
887	751.758	389	0.216111
888	752.605	374	0.207778
889	753.452	397	0.220556
890	754.298	363	0.201667
891	755.145	342	0.19
892	755.992	356	0.197778
893	756.839	381	0.211667
894	757.686	338	0.187778
895	758.532	362	0.201111
896	759.379	384	0.213333
897	760.226	301	0.167222
898	761.073	334	0.185556
899	761.919	322	0.178889
900	762.766	289	0.160556
901	763.613	289	0.160556
902	764.460	296	0.164444
903	765.306	317	0.176111
904	766.153	315	0.175
905	767.000	341	0.189444
906	767.847	283	0.157222
907	768.694	293	0.162778
908	769.540	307	0.170556
909	770.387	281	0.156111
910	771.234	273	0.151667
911	772.081	286	0.158889
912	772.927	264	0.146667
913	773.774	284	0.157778
914	774.621	268	0.148889
915	775.468	246	0.136667
916	776.315	260	0.144444
917	777.161	248	0.137778
918	778.008	247	0.137222
919	778.855	241	0.133889
920	779.702	235	0.130556
921	780.548	242	0.134444
922	781.395	232	0.128889
923	782.242	236	0.131111
924	783.089	240	0.133333
925	783.936	226	0.125556
926	784.782	209	0.116111
927	785.629	230	0.127778
928	786.476	231	0.128333
929	787.323	228	0.126667
930	788.169	233	0.129444
931	789.016	210	0.116667
932	789.863	238	0.132222
933	790.710	197	0.109444
934	791.556	203	0.112778
935	792.403	203	0.112778
936	793.250	225	0.125
937	794.097	205	0.113889
938	794.944	218	0.121111
939	795.790	203	0.112778
940	796.637	196	0.108889
941	797.484	202	0.112222
942	798.331	192	0.106667
943	799.177	173	0.0961111
944	800.024	166	0.0922222
945	800.871	173	0.0961111
946	801.718	187	0.103889
947	802.565	175	0.0972222
948	803.411	176	0.0977778
949	804.258	185	0.102778
950	805.105	182	0.101111
951	805.952	156	0.0866667
952	806.798	157	0.0872222
953	807.645	181	0.100556
954	808.492	178	0.0988889
955	809.339	161	0.0894444
956	810.186	150	0.0833333
957	811.032	156	0.0866667
958	811.879	149	0.0827778
959	812.726	141	0.0783333
960	813.573	137	0.0761111
961	814.419	139	0.0772222
962	815.266	155	0.0861111
963	816.113	127	0.0705556
964	816.960	140	0.0777778
965	817.806	121	0.0672222
966	818.653	143	0.0794444
967	819.500	124	0.0688889
968	820.347	160	0.0888889
969	821.194	127	0.0705556
970	822.040	127	0.0705556
971	822.887	130	0.0722222
972	823.734	119	0.0661111
973	824.581	131	0.0727778
974	825.427	121	0.0672222
975	826.274	101	0.0561111
976	827.121	121	0.0672222
977	827.968	116	0.0644444
978	828.815	120	0.0666667
979	829.661	119	0.0661111
980	830.508	127	0.0705556
981	831.355	119	0.0661111
982	832.202	106	0.0588889
983	833.048	93	0.0516667
984	833.895	111	0.0616667
985	834.742	103	0.0572222
986	835.589	112	0.0622222
987	836.436	91	0.0505556
988	837.282	102	0.0566667
989	838.129	108	0.06
990	838.976	96	0.0533333
991	839.823	109	0.0605556
992	840.669	100	0.0555556
993	841.516	100	0.0555556
994	842.363	103	0.0572222
995	843.210	80	0.0444444
996	844.056	85	0.0472222
997	844.903	87	0.0483333
998	845.750	82	0.0455556
999	846.597	81	0.045
1000	847.444	84	0.0466667
1001	848.290	93	0.0516667
1002	849.137	85	0.0472222
1003	849.984	74	0.0411111
1004	850.831	75	0.0416667
1005	851.677	95	0.0527778
1006	852.524	73	0.0405556
1007	853.371	81	0.045
1008	854.218	71	0.0394444
1009	855.065	77	0.0427778
1010	855.911	79	0.0438889
1011	856.758	78	0.0433333
1012	857.605	67	0.0372222
1013	858.452	71	0.0394444
1014	859.298	79	0.0438889
1015	860.145	77	0.0427778
1016	860.992	71	0.0394444
1017	861.839	69	0.0383333
1018	862.686	79	0.0438889
1019	863.532	67	0.0372222
1020	864.379	79	0.0438889
1021	865.226	57	0.0316667
1022	866.073	71	0.0394444
1023	866.919	73	0.0405556
1024	867.766	51	0.0283333
